Wavelength (nm)	EQE (%)	Current (A)	Dark Current (A) -> 	18.190056000E-12	
400.000000	11.561911	-1.457140E-7
401.000000	12.500912	-2.421977E-7
402.000000	12.457074	-3.318197E-7
403.000000	12.444573	-5.293578E-7
404.000000	12.314796	-7.255316E-7
405.000000	12.395409	-8.839195E-7
406.000000	12.284829	-1.038914E-6
407.000000	12.612834	-1.038214E-6
408.000000	12.719323	-1.259000E-6
409.000000	12.726487	-1.207929E-6
410.000000	12.815258	-1.412950E-6
411.000000	12.861741	-1.689608E-6
412.000000	12.899491	-1.925291E-6
413.000000	12.758632	-2.120262E-6
414.000000	12.996962	-2.201989E-6
415.000000	12.880946	-2.509831E-6
416.000000	13.102127	-2.423423E-6
417.000000	13.272200	-1.624245E-6
418.000000	13.589213	-1.116803E-6
419.000000	13.613439	-1.037785E-6
420.000000	13.375473	-9.416586E-7
421.000000	13.365521	-9.386040E-7
422.000000	13.585674	-9.486188E-7
423.000000	13.738366	-1.046146E-6
424.000000	13.737951	-1.141085E-6
425.000000	13.556014	-1.168229E-6
426.000000	13.906163	-1.242184E-6
427.000000	14.081762	-1.369497E-6
428.000000	14.031650	-1.425911E-6
429.000000	13.719090	-1.306123E-6
430.000000	13.922264	-1.456614E-6
431.000000	14.528156	-1.523934E-6
432.000000	14.559862	-1.547598E-6
433.000000	14.586231	-1.511917E-6
434.000000	14.557253	-1.833933E-6
435.000000	14.691891	-2.168766E-6
436.000000	14.693472	-2.046057E-6
437.000000	14.520602	-1.862012E-6
438.000000	15.037183	-2.234931E-6
439.000000	15.441211	-2.692649E-6
440.000000	15.297361	-2.463843E-6
441.000000	15.328050	-1.911339E-6
442.000000	15.729413	-2.050302E-6
443.000000	16.233630	-2.644836E-6
444.000000	16.094967	-2.693479E-6
445.000000	16.159205	-2.702801E-6
446.000000	16.554835	-2.728014E-6
447.000000	16.584339	-2.515440E-6
448.000000	16.802005	-2.219358E-6
449.000000	17.209631	-2.421573E-6
450.000000	17.540290	-2.675720E-6
451.000000	17.123645	-2.722505E-6
452.000000	17.083593	-3.198632E-6
453.000000	17.705637	-3.581706E-6
454.000000	18.257809	-3.424819E-6
455.000000	18.839764	-2.909969E-6
456.000000	19.333636	-3.380610E-6
457.000000	19.504278	-4.135233E-6
458.000000	19.223687	-4.363949E-6
459.000000	19.259556	-4.710193E-6
460.000000	19.688138	-4.615515E-6
461.000000	20.328276	-3.631800E-6
462.000000	20.332144	-2.864981E-6
463.000000	20.583532	-3.005554E-6
464.000000	20.752862	-3.530214E-6
465.000000	20.422466	-3.355174E-6
466.000000	21.151826	-3.399518E-6
467.000000	21.353230	-3.944984E-6
468.000000	21.370189	-4.027407E-6
469.000000	21.789666	-3.585342E-6
470.000000	22.687824	-3.660899E-6
471.000000	22.478964	-3.600220E-6
472.000000	21.749521	-4.104959E-6
473.000000	23.341894	-4.488661E-6
474.000000	23.877836	-3.997645E-6
475.000000	23.232775	-3.418675E-6
476.000000	23.282235	-4.111731E-6
477.000000	24.364149	-3.612745E-6
478.000000	24.202865	-3.402858E-6
479.000000	24.660615	-4.200276E-6
480.000000	24.003252	-4.265784E-6
481.000000	23.919007	-3.878170E-6
482.000000	24.743589	-5.521322E-6
483.000000	25.162023	-5.505122E-6
484.000000	25.491265	-3.922430E-6
485.000000	26.252688	-4.123508E-6
486.000000	26.191320	-4.708683E-6
487.000000	26.769650	-3.754313E-6
488.000000	28.269997	-3.416160E-6
489.000000	29.497138	-3.426646E-6
490.000000	29.704862	-3.884896E-6
491.000000	29.855305	-4.355197E-6
492.000000	30.285948	-4.444052E-6
493.000000	30.997563	-4.234379E-6
494.000000	30.874366	-4.573528E-6
495.000000	31.688283	-4.908542E-6
496.000000	31.955707	-5.160545E-6
497.000000	31.307346	-5.272737E-6
498.000000	31.057982	-5.605053E-6
499.000000	32.715014	-6.455693E-6
500.000000	33.696334	-6.409998E-6
501.000000	32.989024	-6.042699E-6
502.000000	33.469250	-5.992347E-6
503.000000	34.850919	-6.243597E-6
504.000000	35.075366	-5.857783E-6
505.000000	32.703079	-6.175478E-6
506.000000	33.796250	-6.984502E-6
507.000000	34.403580	-6.666299E-6
508.000000	32.767774	-5.640409E-6
509.000000	32.239637	-7.205347E-6
510.000000	32.009087	-8.098063E-6
511.000000	31.380842	-7.244604E-6
512.000000	33.679718	-8.710534E-6
513.000000	34.273517	-8.894612E-6
514.000000	33.210586	-8.950760E-6
515.000000	35.415960	-1.229799E-5
516.000000	35.064345	-1.458012E-5
517.000000	35.053182	-1.505550E-5
518.000000	36.695988	-1.478039E-5
519.000000	35.891663	-1.320850E-5
520.000000	36.078588	-1.499338E-5
521.000000	35.888875	-1.435011E-5
522.000000	35.365976	-8.290657E-6
523.000000	37.256202	-9.481024E-6
524.000000	36.779417	-1.087869E-5
525.000000	35.583424	-9.930906E-6
526.000000	36.461366	-1.307928E-5
527.000000	37.026289	-1.709031E-5
528.000000	37.275580	-1.921349E-5
529.000000	36.874313	-1.914979E-5
530.000000	36.807840	-1.741301E-5
531.000000	36.747116	-1.455351E-5
532.000000	36.789163	-1.367119E-5
533.000000	36.752391	-8.346743E-6
534.000000	37.584849	-8.321634E-6
535.000000	38.397636	-1.297740E-5
536.000000	36.564529	-1.338453E-5
537.000000	37.391480	-1.661084E-5
538.000000	38.028800	-1.992858E-5
539.000000	37.921672	-1.809902E-5
540.000000	37.942740	-1.765014E-5
541.000000	38.373228	-1.378775E-5
542.000000	40.105169	-9.486697E-6
543.000000	40.281391	-1.208722E-5
544.000000	39.309846	-1.070825E-5
545.000000	38.711815	-1.377363E-5
546.000000	38.725960	-1.846248E-5
547.000000	38.443091	-1.499862E-5
548.000000	39.177630	-1.580886E-5
549.000000	39.591205	-1.650683E-5
550.000000	39.898447	-1.186771E-5
551.000000	40.774080	-1.200473E-5
552.000000	39.975545	-1.494520E-5
553.000000	40.472157	-1.627496E-5
554.000000	39.088499	-2.134201E-5
555.000000	38.617472	-2.319119E-5
556.000000	37.967163	-2.500824E-5
557.000000	37.956948	-2.141698E-5
558.000000	39.492376	-1.542437E-5
559.000000	39.284142	-1.759984E-5
560.000000	39.869712	-1.706983E-5
561.000000	40.391709	-1.669622E-5
562.000000	38.901526	-2.209342E-5
563.000000	38.447364	-2.327606E-5
564.000000	39.384252	-1.991595E-5
565.000000	40.117224	-1.913028E-5
566.000000	41.683075	-1.582118E-5
567.000000	42.510366	-1.650513E-5
568.000000	41.816893	-2.016781E-5
569.000000	41.685573	-2.192243E-5
570.000000	40.597988	-2.745891E-5
571.000000	41.408445	-2.412583E-5
572.000000	41.314885	-2.227754E-5
573.000000	42.736324	-1.870024E-5
574.000000	44.428840	-1.502556E-5
575.000000	43.886906	-1.911965E-5
576.000000	43.371189	-2.357842E-5
577.000000	42.618429	-3.021259E-5
578.000000	40.418725	-3.481679E-5
579.000000	40.713909	-3.442636E-5
580.000000	41.321895	-2.953711E-5
581.000000	42.594594	-2.441064E-5
582.000000	44.162530	-1.940778E-5
583.000000	44.026611	-2.206231E-5
584.000000	44.041456	-2.605860E-5
585.000000	42.918701	-3.267298E-5
586.000000	42.310072	-3.547323E-5
587.000000	42.602265	-3.236685E-5
588.000000	43.377542	-2.926758E-5
589.000000	44.197873	-2.373543E-5
590.000000	45.345262	-2.138410E-5
591.000000	42.998859	-2.858711E-5
592.000000	43.413247	-2.871966E-5
593.000000	43.775741	-3.046836E-5
594.000000	43.278677	-3.233305E-5
595.000000	42.880074	-3.306321E-5
596.000000	42.543838	-3.357384E-5
597.000000	42.563061	-3.243662E-5
598.000000	42.851497	-3.114154E-5
599.000000	43.323407	-3.110834E-5
600.000000	43.792346	-3.154236E-5
601.000000	43.963160	-3.309038E-5
602.000000	43.675012	-3.434008E-5
603.000000	42.971498	-3.529712E-5
604.000000	43.480111	-3.718933E-5
605.000000	43.585744	-3.770541E-5
606.000000	43.670170	-3.988906E-5
607.000000	42.817555	-4.053102E-5
608.000000	42.203772	-3.890219E-5
609.000000	41.416242	-3.686612E-5
610.000000	40.800630	-3.240436E-5
611.000000	41.189899	-2.887712E-5
612.000000	42.504700	-2.864149E-5
613.000000	44.049078	-3.101791E-5
614.000000	45.110018	-3.620678E-5
615.000000	44.420836	-4.096126E-5
616.000000	43.095728	-4.453986E-5
617.000000	41.736989	-4.482268E-5
618.000000	40.375862	-4.067187E-5
619.000000	39.637842	-3.644733E-5
620.000000	39.403037	-3.195471E-5
621.000000	40.646210	-2.914773E-5
622.000000	43.058223	-3.006798E-5
623.000000	44.563044	-3.400952E-5
624.000000	44.690965	-3.935978E-5
625.000000	43.614210	-4.126386E-5
626.000000	42.044501	-4.476505E-5
627.000000	41.477008	-4.566431E-5
628.000000	41.149171	-4.372696E-5
629.000000	41.540664	-4.148781E-5
630.000000	41.867674	-3.968633E-5
631.000000	41.956990	-3.756251E-5
632.000000	42.607895	-3.660968E-5
633.000000	42.482061	-3.585378E-5
634.000000	42.531735	-3.592744E-5
635.000000	42.638711	-3.701659E-5
636.000000	42.563401	-3.807351E-5
637.000000	42.329781	-3.985139E-5
638.000000	41.927247	-4.101497E-5
639.000000	41.269118	-4.105322E-5
640.000000	41.143348	-4.084956E-5
641.000000	40.960751	-3.834723E-5
642.000000	41.515305	-3.735316E-5
643.000000	41.458592	-3.699601E-5
644.000000	41.340697	-3.710205E-5
645.000000	40.865061	-3.860760E-5
646.000000	40.083723	-3.887942E-5
647.000000	39.347197	-3.903696E-5
648.000000	38.751858	-3.813743E-5
649.000000	38.675911	-3.528114E-5
650.000000	39.052554	-3.374883E-5
651.000000	39.176920	-3.303147E-5
652.000000	39.034338	-3.385283E-5
653.000000	38.223164	-3.456324E-5
654.000000	37.180014	-3.510488E-5
655.000000	36.311998	-3.542179E-5
656.000000	35.551547	-3.266888E-5
657.000000	35.377780	-3.052515E-5
658.000000	35.039649	-2.961736E-5
659.000000	34.591652	-2.857715E-5
660.000000	34.191854	-2.926326E-5
661.000000	33.079242	-3.003683E-5
662.000000	31.793433	-2.963429E-5
663.000000	30.710002	-2.940122E-5
664.000000	29.846715	-2.791531E-5
665.000000	28.996437	-2.484344E-5
666.000000	28.525608	-2.277083E-5
667.000000	27.888807	-2.163989E-5
668.000000	27.003014	-2.115374E-5
669.000000	25.823068	-2.122157E-5
670.000000	24.583402	-2.181939E-5
671.000000	23.094504	-2.104397E-5
672.000000	21.877647	-1.920165E-5
673.000000	20.957827	-1.805946E-5
674.000000	19.918511	-1.637518E-5
675.000000	19.025429	-1.496563E-5
676.000000	17.978470	-1.487500E-5
677.000000	16.711903	-1.435648E-5
678.000000	15.589803	-1.415506E-5
679.000000	14.504843	-1.356664E-5
680.000000	13.519400	-1.176300E-5
681.000000	12.666545	-1.038571E-5
682.000000	11.789543	-9.737221E-6
683.000000	10.921217	-9.197544E-6
684.000000	10.036271	-8.777159E-6
685.000000	9.201129	-8.745423E-6
686.000000	8.414336	-8.163292E-6
687.000000	7.664170	-6.907451E-6
688.000000	7.106139	-6.385867E-6
689.000000	6.530338	-6.148657E-6
690.000000	5.991587	-5.612651E-6
691.000000	5.500930	-5.358803E-6
692.000000	5.037724	-5.129909E-6
693.000000	4.607996	-4.629821E-6
694.000000	4.197606	-3.935108E-6
695.000000	3.845831	-3.281421E-6
696.000000	3.511299	-2.878823E-6
697.000000	3.188300	-2.697657E-6
698.000000	2.894708	-2.672319E-6
699.000000	2.615682	-2.600564E-6
700.000000	2.368157	-2.395241E-6
701.000000	2.167345	-2.173198E-6
702.000000	1.988877	-1.869875E-6
703.000000	1.812109	-1.575395E-6
704.000000	1.654499	-1.536316E-6
705.000000	1.501154	-1.530753E-6
706.000000	1.345708	-1.391154E-6
707.000000	1.219762	-1.280715E-6
708.000000	1.120117	-1.201363E-6
709.000000	1.033039	-9.994398E-7
710.000000	0.935615	-7.691987E-7
711.000000	0.858915	-7.675880E-7
712.000000	0.787625	-8.641304E-7
713.000000	0.717163	-8.259513E-7
714.000000	0.648266	-7.038559E-7
715.000000	0.590281	-5.718025E-7
716.000000	0.545684	-4.844846E-7
717.000000	0.506949	-4.447748E-7
718.000000	0.465459	-4.092066E-7
719.000000	0.426123	-3.939344E-7
720.000000	0.387515	-3.722593E-7
721.000000	0.351077	-3.447244E-7
722.000000	0.323480	-3.205944E-7
723.000000	0.295389	-2.697630E-7
724.000000	0.273995	-2.290839E-7
725.000000	0.253190	-2.130634E-7
726.000000	0.232592	-2.043214E-7
727.000000	0.213757	-1.958136E-7
728.000000	0.193303	-1.830387E-7
729.000000	0.176959	-1.658778E-7
730.000000	0.162536	-1.445653E-7
731.000000	0.150641	-1.258447E-7
732.000000	0.139633	-1.134823E-7
733.000000	0.127828	-1.079051E-7
734.000000	0.117338	-1.063702E-7
735.000000	0.106840	-1.004652E-7
736.000000	0.096541	-8.923553E-8
737.000000	0.089571	-8.069701E-8
738.000000	0.082463	-7.015467E-8
739.000000	0.076690	-6.236965E-8
740.000000	0.070565	-5.940208E-8
741.000000	0.064526	-5.662414E-8
742.000000	0.059018	-5.442619E-8
743.000000	0.054077	-4.982696E-8
744.000000	0.049549	-4.299952E-8
745.000000	0.045923	-3.850886E-8
746.000000	0.042325	-3.467064E-8
747.000000	0.039118	-3.184252E-8
748.000000	0.036004	-3.056593E-8
749.000000	0.033113	-2.927435E-8
750.000000	0.030338	-2.695214E-8
751.000000	0.027848	-2.433643E-8
752.000000	0.025702	-2.134527E-8
753.000000	0.023837	-1.900228E-8
754.000000	0.022016	-1.747326E-8
755.000000	0.020237	-1.635832E-8
756.000000	0.018603	-1.596793E-8
757.000000	0.016997	-1.517731E-8
758.000000	0.015585	-1.368393E-8
759.000000	0.014423	-1.241433E-8
760.000000	0.013341	-1.123164E-8
761.000000	0.012369	-9.967599E-9
762.000000	0.007304	-5.835839E-9
763.000000	0.008661	-7.218957E-9
764.000000	0.009670	-8.353193E-9
765.000000	0.007329	-6.382876E-9
766.000000	0.005180	-4.388854E-9
767.000000	0.006267	-5.140363E-9
768.000000	0.004464	-3.647382E-9
769.000000	0.004120	-3.378901E-9
770.000000	0.005085	-4.192919E-9
771.000000	0.004688	-3.931217E-9
772.000000	0.003296	-2.822231E-9
773.000000	0.004931	-4.261517E-9
774.000000	0.003696	-3.180565E-9
775.000000	0.004277	-3.588212E-9
776.000000	0.004019	-3.305016E-9
777.000000	0.002290	-1.902385E-9
778.000000	0.002806	-2.410241E-9
779.000000	0.002611	-2.326637E-9
780.000000	0.003009	-2.719735E-9
781.000000	0.002800	-2.505792E-9
782.000000	0.002621	-2.281399E-9
783.000000	0.002463	-2.081988E-9
784.000000	0.002318	-1.933898E-9
785.000000	0.001743	-1.474735E-9
786.000000	0.002025	-1.788961E-9
787.000000	0.001523	-1.384442E-9
788.000000	0.001773	-1.629981E-9
789.000000	0.001656	-1.498239E-9
790.000000	0.001580	-1.385232E-9
791.000000	0.001470	-1.278503E-9
792.000000	0.001117	-9.801243E-10
793.000000	0.001304	-1.182992E-9
794.000000	0.001226	-1.147529E-9
795.000000	0.001143	-1.083413E-9
796.000000	0.001085	-1.015792E-9
797.000000	0.001022	-9.221557E-10
798.000000	0.000974	-8.571670E-10
799.000000	0.000925	-8.012166E-10
800.000000	0.000878	-7.727672E-10
801.000000	0.000825	-7.501394E-10
802.000000	0.000464	-4.271046E-10
803.000000	0.000731	-6.648727E-10
804.000000	0.000699	-6.097550E-10
805.000000	0.000668	-5.589411E-10
806.000000	0.000638	-5.303879E-10
807.000000	0.000488	-4.081604E-10
808.000000	0.000339	-2.891591E-10
809.000000	0.000552	-4.825202E-10
810.000000	0.000522	-4.490165E-10
811.000000	0.000501	-4.218446E-10
812.000000	0.000480	-3.965405E-10
813.000000	0.000463	-3.707220E-10
814.000000	0.000445	-3.549375E-10
815.000000	0.000335	-2.699203E-10
816.000000	0.000404	-3.325867E-10
817.000000	0.000304	-2.572360E-10
818.000000	0.000292	-2.400228E-10
819.000000	0.000366	-2.901849E-10
820.000000	0.000340	-2.698660E-10
821.000000	0.000335	-2.655428E-10
822.000000	0.000179	-1.449438E-10
823.000000	0.000307	-2.523640E-10
824.000000	0.000290	-2.326547E-10
825.000000	0.000222	-1.756360E-10
826.000000	0.000212	-1.672560E-10
827.000000	0.000204	-1.567831E-10
828.000000	0.000254	-1.923938E-10
829.000000	0.000252	-1.898171E-10
830.000000	0.000240	-1.833842E-10
831.000000	0.000178	-1.408941E-10
832.000000	0.000217	-1.741555E-10
833.000000	0.000220	-1.720906E-10
834.000000	0.000159	-1.234815E-10
835.000000	0.000204	-1.584255E-10
836.000000	0.000198	-1.559856E-10
837.000000	0.000109	-8.849068E-11
838.000000	0.000177	-1.438657E-10
839.000000	9.104431E-5	-7.312316E-11
840.000000	0.000137	-1.084012E-10
841.000000	0.000172	-1.315114E-10
842.000000	0.000127	-9.383376E-11
843.000000	0.000157	-1.141306E-10
844.000000	0.000161	-1.150429E-10
845.000000	0.000116	-8.316051E-11
846.000000	0.000113	-8.075087E-11
847.000000	0.000109	-7.674926E-11
848.000000	0.000142	-1.002272E-10
849.000000	0.000130	-8.913494E-11
850.000000	0.000114	-7.603441E-11
851.000000	7.553205E-5	-5.009697E-11
852.000000	0.000135	-8.850586E-11
853.000000	9.878522E-5	-6.394917E-11
854.000000	0.000125	-8.069167E-11
855.000000	0.000114	-7.186749E-11
856.000000	0.000136	-8.185406E-11
857.000000	0.000128	-7.414922E-11
858.000000	5.740394E-5	-3.293767E-11
859.000000	0.000116	-6.679604E-11
860.000000	8.271663E-5	-4.702876E-11
861.000000	0.000113	-6.231068E-11
862.000000	0.000108	-5.861258E-11
863.000000	0.000103	-5.485981E-11
864.000000	8.608611E-5	-4.505299E-11
865.000000	0.000115	-5.965188E-11
866.000000	0.000106	-5.356071E-11
867.000000	0.000106	-5.240223E-11
868.000000	3.887278E-5	-1.893335E-11
869.000000	0.000108	-5.007751E-11
870.000000	9.995977E-5	-4.496116E-11
871.000000	7.140856E-5	-3.188130E-11
872.000000	0.000101	-4.441804E-11
873.000000	0.000108	-4.671154E-11
874.000000	9.873111E-5	-4.227697E-11
875.000000	3.835477E-5	-1.605553E-11
876.000000	6.467819E-5	-2.693706E-11
877.000000	4.667200E-6	-1.932202E-12
878.000000	9.660348E-5	-3.940136E-11
879.000000	6.428664E-5	-2.570345E-11
880.000000	9.046541E-5	-3.536922E-11
881.000000	6.313194E-5	-2.446790E-11
882.000000	6.222579E-5	-2.393488E-11
883.000000	9.267089E-5	-3.489062E-11
884.000000	8.968874E-5	-3.326717E-11
885.000000	9.524107E-5	-3.507031E-11
886.000000	6.406522E-5	-2.338013E-11
887.000000	6.472185E-5	-2.346848E-11
888.000000	9.752570E-5	-3.493554E-11
889.000000	7.902527E-5	-2.814497E-11
890.000000	6.266920E-5	-2.239476E-11
891.000000	5.828460E-5	-2.071291E-11
892.000000	8.155763E-5	-2.821335E-11
893.000000	5.498947E-5	-1.837022E-11
894.000000	5.542428E-5	-1.826593E-11
895.000000	8.706205E-5	-2.880527E-11
896.000000	9.407131E-5	-3.115150E-11
897.000000	5.483577E-5	-1.811844E-11
898.000000	2.759941E-5	-9.052200E-12
899.000000	9.208511E-5	-3.030952E-11
900.000000	8.196043E-5	-2.743193E-11
901.000000	2.595864E-5	-8.729415E-12
902.000000	8.933265E-5	-3.039353E-11
903.000000	6.049922E-5	-2.095025E-11
904.000000	5.974087E-5	-2.108274E-11
905.000000	6.399972E-5	-2.314851E-11
906.000000	7.749891E-5	-2.760969E-11
907.000000	9.609851E-5	-3.299956E-11
908.000000	5.971120E-5	-2.027195E-11
909.000000	0.000101	-3.401151E-11
910.000000	6.300413E-5	-2.133947E-11
911.000000	6.198088E-5	-2.135026E-11
912.000000	6.274164E-5	-2.180428E-11
913.000000	1.344627E-5	-4.717147E-12
914.000000	5.033597E-5	-1.757747E-11
915.000000	9.356041E-5	-3.192313E-11
916.000000	6.344267E-5	-2.141872E-11
917.000000	7.241966E-5	-2.461684E-11
918.000000	6.429402E-5	-2.248006E-11
919.000000	7.351846E-5	-2.623049E-11
920.000000	0.000101	-3.596700E-11
921.000000	7.281726E-5	-2.570108E-11
922.000000	5.247723E-5	-1.823006E-11
923.000000	8.071873E-5	-2.754718E-11
924.000000	6.544955E-5	-2.242337E-11
925.000000	2.618568E-5	-9.004335E-12
926.000000	9.834840E-5	-3.440610E-11
927.000000	8.015115E-5	-2.851418E-11
928.000000	9.774195E-5	-3.421270E-11
929.000000	6.072581E-5	-2.092659E-11
930.000000	6.148272E-5	-2.081426E-11
931.000000	0.000106	-3.543172E-11
932.000000	8.114869E-5	-2.759018E-11
933.000000	5.293828E-5	-1.824782E-11
934.000000	6.497795E-5	-2.264680E-11
935.000000	5.931728E-5	-2.082891E-11
936.000000	2.571302E-5	-8.847980E-12
937.000000	0.000109	-3.700822E-11
938.000000	6.315935E-5	-2.113989E-11
939.000000	9.191694E-5	-3.021962E-11
940.000000	0.000110	-3.663507E-11
941.000000	5.079457E-5	-1.698877E-11
942.000000	7.396502E-5	-2.475711E-11
943.000000	0.000109	-3.645146E-11
944.000000	6.565275E-5	-2.156192E-11
945.000000	4.893488E-5	-1.595785E-11
946.000000	8.240304E-5	-2.706465E-11
947.000000	6.744394E-5	-2.223927E-11
948.000000	9.558133E-5	-3.193289E-11
949.000000	7.426181E-5	-2.487520E-11
950.000000	8.696646E-5	-2.894201E-11
951.000000	0.000137	-4.529716E-11
952.000000	7.367216E-5	-2.386296E-11
953.000000	9.826949E-5	-3.127650E-11
954.000000	3.027366E-5	-9.604147E-12
955.000000	0.000114	-3.613691E-11
956.000000	1.243508E-5	-3.950537E-12
957.000000	0.000255	8.126322E-11
958.000000	9.368886E-5	-2.981234E-11
959.000000	8.024653E-5	2.562654E-11
960.000000	4.916327E-5	1.558704E-11
961.000000	4.373900E-5	1.382732E-11
962.000000	1.827439E-5	5.785390E-12
963.000000	1.329483E-5	4.168397E-12
964.000000	8.034733E-6	2.516220E-12
965.000000	6.262891E-6	1.947242E-12
966.000000	2.450328E-6	7.486823E-13
967.000000	1.265324E-6	3.830385E-13
968.000000	2.615317E-6	7.799568E-13
969.000000	4.279875E-6	-1.257403E-12
970.000000	4.579916E-6	-1.345390E-12
971.000000	3.973872E-6	-1.171376E-12
972.000000	7.055504E-6	-2.107938E-12
973.000000	7.394510E-6	-2.211554E-12
974.000000	4.239282E-6	-1.257403E-12
975.000000	8.532759E-6	-2.526346E-12
976.000000	1.062021E-5	-3.101202E-12
977.000000	9.127912E-6	-2.628036E-12
978.000000	8.564964E-6	-2.448160E-12
979.000000	1.151413E-5	-3.236110E-12
980.000000	2.132557E-5	-5.891331E-12
981.000000	7.290994E-5	-1.993392E-11
982.000000	3.210628E-5	-8.679505E-12
983.000000	6.459541E-5	-1.735300E-11
984.000000	0.000493	-1.322883E-10
985.000000	7.945210E-5	-2.137885E-11
986.000000	9.048842E-5	-2.448966E-11
987.000000	1.445875E-7	-3.929200E-14
988.000000	0.000170	-4.669539E-11
989.000000	0.000503	-1.392782E-10
990.000000	0.002004	-5.480986E-10
991.000000	0.001164	-3.140779E-10
992.000000	0.000106	-2.825422E-11
993.000000	0.000121	-3.155392E-11
994.000000	0.001737	4.457079E-10
995.000000	4.884762E-5	1.231982E-11
996.000000	2.197257E-5	5.511653E-12
997.000000	4.101365E-5	1.034698E-11
998.000000	2.786396E-5	7.011340E-12
999.000000	1.457462E-5	3.683503E-12
1000.000000	1.404848E-6	3.595822E-13
1001.000000	4.952567E-6	-1.286737E-12
1002.000000	1.695737E-5	-4.487457E-12
1003.000000	3.883038E-6	1.036092E-12
1004.000000	1.568620E-5	4.164495E-12
1005.000000	4.791914E-6	1.257048E-12
1006.000000	8.395089E-8	-2.169533E-14
1007.000000	6.801997E-6	1.747828E-12
1008.000000	5.386089E-5	1.389709E-11
1009.000000	3.147898E-5	8.070507E-12
1010.000000	1.468658E-5	3.771485E-12
1011.000000	1.661062E-5	4.270074E-12
1012.000000	1.848097E-5	4.749118E-12
1013.000000	5.105305E-6	1.319614E-12
1014.000000	9.894740E-6	2.572921E-12
1015.000000	5.628868E-6	1.477983E-12
1016.000000	7.965348E-6	2.107571E-12
1017.000000	9.883806E-6	2.647230E-12
1018.000000	9.382077E-6	2.559233E-12
1019.000000	1.013985E-5	2.788006E-12
1020.000000	9.864928E-6	2.707830E-12
1021.000000	1.110876E-5	3.071508E-12
1022.000000	8.215887E-6	2.307005E-12
1023.000000	9.771544E-6	2.801678E-12
1024.000000	9.647541E-6	2.846660E-12
1025.000000	9.390430E-6	2.864257E-12
1026.000000	6.551585E-6	2.064578E-12
1027.000000	4.957659E-6	1.599217E-12
1028.000000	2.980706E-7	9.757808E-14
1029.000000	7.354258E-7	2.422656E-13
1030.000000	3.088419E-6	1.018508E-12
1031.000000	7.205754E-6	2.367613E-12
1032.000000	5.908905E-6	-1.912416E-12
1033.000000	9.019478E-6	-2.878313E-12
1034.000000	1.923114E-5	-6.113143E-12
1035.000000	0.000210	6.757377E-11
1036.000000	6.010430E-6	1.949201E-12
1037.000000	3.764000E-6	1.221852E-12
1038.000000	4.438119E-6	1.438874E-12
1039.000000	1.270203E-5	-4.192225E-12
1040.000000	4.063447E-5	-1.368689E-11
1041.000000	1.876857E-6	-6.239163E-13
1042.000000	3.999981E-5	-1.287157E-11
1043.000000	0.000112	-3.504801E-11
1044.000000	0.000103	-3.179641E-11
1045.000000	0.001337	-4.095676E-10
1046.000000	0.001338	-4.099879E-10
1047.000000	0.001339	-4.142955E-10
1048.000000	0.000316	9.901131E-11
1049.000000	0.000225	7.129148E-11
1050.000000	0.000707	-2.301307E-10
1051.000000	0.001213	-4.100788E-10
1052.000000	0.000151	-5.299609E-11
1053.000000	0.000159	5.870361E-11
1054.000000	0.001325	-5.106077E-10
1055.000000	3.847668E-5	1.532699E-11
1056.000000	3.314658E-5	1.368459E-11
1057.000000	2.773117E-5	1.202849E-11
1058.000000	2.893491E-5	1.334046E-11
1059.000000	2.602054E-5	1.293768E-11
1060.000000	2.020711E-5	1.111148E-11
1061.000000	1.685980E-5	1.061289E-11
1062.000000	1.756438E-5	1.295137E-11
1063.000000	1.042068E-5	9.779964E-12
1064.000000	5.384579E-6	8.688930E-12
1065.000000	2.738254E-6	7.071951E-12
1066.000000	2.215318E-6	5.308314E-12
1067.000000	2.725118E-6	3.769548E-12
1068.000000	3.111657E-6	3.136037E-12
1069.000000	3.451880E-6	3.245545E-12
1070.000000	4.079557E-6	3.112568E-12
1071.000000	5.980141E-6	3.407810E-12
1072.000000	6.975512E-6	3.147765E-12
1073.000000	6.920889E-6	2.840793E-12
1074.000000	6.834807E-6	2.592470E-12
1075.000000	7.810991E-6	2.786044E-12
1076.000000	1.512228E-5	5.106916E-12
1077.000000	6.958796E-6	2.236617E-12
1078.000000	1.015024E-5	3.137996E-12
1079.000000	1.124604E-5	3.386310E-12
1080.000000	1.213271E-5	3.597474E-12
1081.000000	9.288348E-6	2.690240E-12
1082.000000	9.318422E-6	2.643320E-12
1083.000000	8.273285E-6	2.301149E-12
1084.000000	1.098741E-5	2.967888E-12
1085.000000	8.925264E-6	2.361762E-12
1086.000000	5.164914E-6	1.343077E-12
1087.000000	5.393562E-5	-1.381203E-11
1088.000000	0.000196	-4.958324E-11
1089.000000	0.000471	-1.188185E-10
1090.000000	0.000614	-1.537333E-10
1091.000000	0.001709	-4.199126E-10
1092.000000	0.002110	-5.104628E-10
1093.000000	0.002144	-5.154971E-10
1094.000000	0.002904	-7.062736E-10
1095.000000	0.002449	-5.960775E-10
1096.000000	4.580016E-5	-1.095174E-11
1097.000000	2.946136E-5	-7.052456E-12
1098.000000	1.707591E-5	-4.090024E-12
1099.000000	2.908118E-5	-7.138413E-12
1100.000000	5.113108E-5	-1.286231E-11
